\STAR_ID                                  = "55 Cnc"
\DATA_CATEGORY                            = "Planet Radial Velocity Curve"
\NUMBER_OF_POINTS                         = "48"
\TIME_REFERENCE_FRAME                     = "BJD"
\MINIMUM_DATE                             = "2450207.3325"
\DATE_UNITS                               = "days"
\MAXIMUM_DATE                             = "2452778.3426"
\MINIMUM_VALUE                            = "27147.00"
\VALUE_UNITS                              = "m/s"
\MAXIMUM_VALUE                            = "27362.00"
\REFERENCE                                = "Naef et al. 2004 (A&A, 414, 351)"
\BIBCODE                                  = "2004A&A...414..351N"
\TELESCOPE                                = "1.93m"
\INSTRUMENT                               = "ELODIE"
\WAVELENGTH_CALIBRATION_TECHNIQUE         = "Thorium Argon"
\OBSERVATORY_SITE                         = "Observatoire de Haute Provence (OHP), France"
\COLUMN_RADIAL_VELOCITY                   = "Radial velocity relative to barycenter"
\COLUMN_RADIAL_VELOCITY_UNCERTAINTY       = "Uncertainty in RADIAL_VELOCITY"
|          BJD | Radial_Velocity | Radial_Velocity_Uncertainty |
|       double |          double |                      double |
|         days |             m/s |                         m/s |
  2450207.3325          27267.00                          7.00
  2450208.3345          27226.00                          7.00
  2450209.3350          27213.00                          7.00
  2450210.3319          27205.00                          7.00
  2450380.6941          27362.00                          8.00
  2450447.6526          27280.00                          7.00
  2450477.5717          27288.00                          7.00
  2450478.4770          27309.00                          7.00
  2450479.4619          27331.00                          7.00
  2450533.4064          27213.00                          7.00
  2450535.4471          27251.00                          7.00
  2450559.3450          27262.00                          7.00
  2450561.3210          27224.00                          7.00
  2450732.6728          27356.00                          7.00
  2450735.6859          27263.00                          9.00
  2450766.6945          27232.00                          7.00
  2450795.6295          27226.00                          8.00
  2450821.5603          27305.00                          7.00
  2450824.5615          27228.00                          7.00
  2450858.4275          27286.00                          7.00
  2450860.4810          27349.00                          7.00
  2450885.4374          27220.00                          7.00
  2450890.5199          27354.00                          8.00
  2450940.3384          27255.00                          7.00
  2451152.6836          27304.00                          9.00
  2451240.5511          27305.00                          7.00
  2451300.3589          27345.00                          7.00
  2451505.6846          27333.00                          8.00
  2451543.5995          27182.00                          7.00
  2451559.5868          27203.00                          7.00
  2451561.5149          27258.00                          8.00
  2451588.4370          27188.00                          7.00
  2451623.3741          27324.00                          7.00
  2451655.3197          27302.00                          7.00
  2451691.3365          27176.00                          7.00
  2451882.6941          27212.00                          7.00
  2451883.6628          27246.00                          7.00
  2451953.5620          27147.00                          7.00
  2451979.4519          27238.00                          7.00
  2452252.6780          27309.00                          9.00
  2452722.4014          27305.00                          7.00
  2452747.3695          27184.00                          7.00
  2452748.3451          27213.00                          7.00
  2452753.3701          27285.00                          7.00
  2452774.3355          27173.00                          8.00
  2452776.3520          27200.00                          7.00
  2452777.3871          27212.00                          7.00
  2452778.3426          27259.00                          7.00